# Wavelength Response
730.000  0.000000
731.000  0.00120482
732.000  0.00240964
733.000  0.00361446
734.000  0.00481928
735.000  0.00602410
736.000  0.00722892
737.000  0.00843373
738.000  0.00963855
739.000  0.0108434
740.000  0.0120482
741.000  0.0156627
742.000  0.0192771
743.000  0.0228916
744.000  0.0265060
745.000  0.0301205
746.000  0.0337349
747.000  0.0373494
748.000  0.0409639
749.000  0.0445783
750.000  0.0481928
751.000  0.0602410
752.000  0.0722892
753.000  0.0843373
754.000  0.0963855
755.000  0.108434
756.000  0.120482
757.000  0.132530
758.000  0.144578
759.000  0.156627
760.000  0.168675
761.000  0.191566
762.000  0.214458
763.000  0.237349
764.000  0.260241
765.000  0.283133
766.000  0.306024
767.000  0.328916
768.000  0.351807
769.000  0.374699
770.000  0.397590
771.000  0.422892
772.000  0.448193
773.000  0.473494
774.000  0.498795
775.000  0.524096
776.000  0.549398
777.000  0.574699
778.000  0.600000
779.000  0.625301
780.000  0.650602
781.000  0.669879
782.000  0.689157
783.000  0.708434
784.000  0.727711
785.000  0.746988
786.000  0.766265
787.000  0.785542
788.000  0.804819
789.000  0.824096
790.000  0.843373
791.000  0.854217
792.000  0.865060
793.000  0.875904
794.000  0.886747
795.000  0.897590
796.000  0.908434
797.000  0.919277
798.000  0.930120
799.000  0.940964
800.000  0.951807
801.000  0.956626
802.000  0.961446
803.000  0.966265
804.000  0.971084
805.000  0.975904
806.000  0.980723
807.000  0.985542
808.000  0.990361
809.000  0.995181
810.000  1.00000
811.000  1.00000
812.000  1.00000
813.000  1.00000
814.000  1.00000
815.000  1.00000
816.000  1.00000
817.000  1.00000
818.000  1.00000
819.000  1.00000
820.000  1.00000
821.000  1.00000
822.000  1.00000
823.000  1.00000
824.000  1.00000
825.000  1.00000
826.000  1.00000
827.000  1.00000
828.000  1.00000
829.000  1.00000
830.000  1.00000
831.000  1.00000
832.000  1.00000
833.000  1.00000
834.000  1.00000
835.000  1.00000
836.000  1.00000
837.000  1.00000
838.000  1.00000
839.000  1.00000
840.000  1.00000
841.000  0.998795
842.000  0.997590
843.000  0.996386
844.000  0.995181
845.000  0.993976
846.000  0.992771
847.000  0.991566
848.000  0.990361
849.000  0.989157
850.000  0.987952
851.000  0.985542
852.000  0.983133
853.000  0.980723
854.000  0.978313
855.000  0.975904
856.000  0.973494
857.000  0.971084
858.000  0.968675
859.000  0.966265
860.000  0.963855
861.000  0.960241
862.000  0.956627
863.000  0.953012
864.000  0.949398
865.000  0.945783
866.000  0.942169
867.000  0.938554
868.000  0.934940
869.000  0.931325
870.000  0.927711
871.000  0.919277
872.000  0.910843
873.000  0.902410
874.000  0.893976
875.000  0.885542
876.000  0.877108
877.000  0.868675
878.000  0.860241
879.000  0.851807
880.000  0.843373
881.000  0.822892
882.000  0.802410
883.000  0.781928
884.000  0.761446
885.000  0.740964
886.000  0.720482
887.000  0.700000
888.000  0.679518
889.000  0.659036
890.000  0.638554
891.000  0.608434
892.000  0.578313
893.000  0.548193
894.000  0.518072
895.000  0.487952
896.000  0.457831
897.000  0.427711
898.000  0.397590
899.000  0.367470
900.000  0.337349
901.000  0.318072
902.000  0.298795
903.000  0.279518
904.000  0.260241
905.000  0.240964
906.000  0.221687
907.000  0.202410
908.000  0.183133
909.000  0.163855
910.000  0.144578
911.000  0.136145
912.000  0.127711
913.000  0.119277
914.000  0.110843
915.000  0.102410
916.000  0.0939759
917.000  0.0855422
918.000  0.0771084
919.000  0.0686747
920.000  0.0602410
921.000  0.0566265
922.000  0.0530121
923.000  0.0493976
924.000  0.0457831
925.000  0.0421687
926.000  0.0385542
927.000  0.0349398
928.000  0.0313253
929.000  0.0277108
930.000  0.0240964
931.000  0.0228916
932.000  0.0216867
933.000  0.0204819
934.000  0.0192771
935.000  0.0180723
936.000  0.0168675
937.000  0.0156627
938.000  0.0144578
939.000  0.0132530
940.000  0.0120482
941.000  0.0120482
942.000  0.0120482
943.000  0.0120482
944.000  0.0120482
945.000  0.0120482
946.000  0.0120482
947.000  0.0120482
948.000  0.0120482
949.000  0.0120482
950.000  0.0120482
951.000  0.0108434
952.000  0.00963855
953.000  0.00843373
954.000  0.00722892
955.000  0.00602410
956.000  0.00481928
957.000  0.00361446
958.000  0.00240964
959.000  0.00120482